File: Tutorial_Raman_data/References/Cr2O3.txt
#Acq. time (s)=	10
#Accumulations=	30
#Range=	Off
#Autofocus=	Off
#AutoExposure=	Off
#Spike filter=	Multiple accum.
#Delay time (s)=	0
#Binning=	1
#Readout mode=	Signal
#DeNoise=	Off
#ICS correction=	Off
#Dark correction=	Off
#Inst. Process=	Off
#Detector Gain=	Best Dynamic
#Detector ADC=	50 kHz HS
#Detector temperature (°C)=	-75.19
#Instrument=	LabRAM
#Detector=	HJY/EM Detector
#Objective=	x50LWD
#Grating=	600
#Filter=	10%
#Laser (nm)=	532
#Spectro (cm-¹)=	1049.99
#Slit=	100
#Hole=	1000
#StageXY=	Marzhauser
#X (µm)=	0
#Y (µm)=	0
#Full time(mm:ss)=	5:06
#Project=
#Sample=
#Site=
#Title=	D_8
#Remark=
#Date=	16.04.2025 16:40
#Acquired=	16.04.2025 16:40:02
#AxisType[0]=Intens
#AxisUnit[0]=Cnt/sec
#AxisType[1]=Spectr
#AxisUnit[1]=1/cm
164.601	1.51034
171.903	1.61379
179.2	1.57931
186.49	1.66897
193.773	1.65517
201.053	1.71034
208.324	1.77241
215.592	1.82069
222.852	1.85517
230.107	1.81379
237.358	1.84138
244.601	1.8
251.838	1.88965
259.068	1.93103
266.294	2.01379
273.515	2.22069
280.728	2.41379
287.937	2.87586
295.139	3.97241
302.335	4.71035
309.525	3.75172
316.71	2.77241
323.889	2.44828
331.063	2.2069
338.231	2.34483
345.392	3.14483
352.549	3.91035
359.698	2.21379
366.844	1.94483
373.982	1.93793
381.115	2.05517
388.242	2.12414
395.364	2.37931
402.478	2.21379
409.589	2.06207
416.694	1.91724
423.792	2
430.884	1.90345
437.973	1.9931
445.054	2.08966
452.13	2.01379
459.2	2.05517
466.263	2.10345
473.322	2.2
480.376	2.15862
487.423	2.2
494.466	2.27586
501.502	2.28966
508.532	2.42759
515.557	2.72414
522.576	4.43448
529.59	5.69655
536.599	5.16552
543.6	10.9724
550.598	56.9517
557.589	24.9862
564.574	6.54483
571.556	3.72414
578.53	2.90345
585.499	2.62069
592.461	2.44138
599.42	2.67586
606.373	3.89655
613.319	7.08965
620.261	3.08276
627.197	2.29655
634.127	2.14483
641.051	2.1931
647.971	2.02759
654.885	1.95172
661.794	2.07586
668.697	1.93793
675.594	1.89655
682.485	1.93103
689.372	1.92414
696.253	1.84828
703.128	1.87586
709.999	1.91724
716.863	1.81379
723.723	1.73103
730.576	1.66207
737.425	1.66897
744.267	1.68276
751.104	1.67586
757.938	1.63448
764.765	1.68966
771.584	1.61379
778.4	1.66207
785.211	1.58621
792.017	1.66207
798.816	1.64138
805.61	1.68966
812.4	1.53793
819.184	1.53793
825.962	1.50345
832.736	1.43448
839.502	1.42759
846.265	1.42069
853.023	1.35862
859.774	1.37241
866.519	1.28966
873.262	1.35172
879.998	1.41379
886.728	1.29655
893.454	1.42069
900.172	1.32414
906.888	1.35172
913.596	1.35172
920.302	1.28966
927	1.38621
933.693	1.28276
940.382	1.31724
947.065	1.24138
953.744	1.2
960.415	1.24138
967.083	1.22069
973.745	1.29655
980.403	1.22069
987.055	1.31724
993.701	1.17931
1000.34	1.21379
1006.98	1.22759
1013.61	1.17931
1020.24	1.17931
1026.86	1.21379
1033.47	1.33103
1040.08	1.37241
1046.69	1.38621
1053.29	1.44828
1059.88	1.33103
1066.47	1.29655
1073.06	1.26897
1079.64	1.22069
1086.21	1.1931
1092.78	1.24138
1099.34	1.15172
1105.9	1.18621
1112.46	1.2
1119.01	1.08276
1125.55	1.15862
1132.09	1.14483
1138.62	1.15862
1145.15	1.13793
1151.68	1.11724
1158.19	1.15862
1164.71	1.16552
1171.22	1.2
1177.72	1.18621
1184.22	1.23448
1190.71	1.2069
1197.2	1.31724
1203.68	1.18621
1210.16	1.13103
1216.63	1.11034
1223.1	1.13793
1229.56	1.15172
1236.02	1.12414
1242.48	1.10345
1248.92	1.06207
1255.37	1.05517
1261.81	1.06207
1268.24	1.04138
1274.67	1.07586
1281.09	1.09655
1287.51	1.1931
1293.92	1.24828
1300.33	1.17931
1306.74	1.24828
1313.14	1.1931
1319.53	1.13793
1325.92	0.972414
1332.3	1.08276
1338.68	1.08276
1345.05	1.09655
1351.42	1.25517
1357.79	1.26207
1364.15	1.28276
1370.5	1.37931
1376.85	1.48276
1383.2	1.54483
1389.54	1.43448
1395.87	1.44828
1402.2	1.37241
1408.53	1.32414
1414.85	1.37931
1421.16	1.37241
1427.47	1.31034
1433.78	1.31034
1440.08	1.2069
1446.38	1.17241
1452.67	1.05517
1458.96	0.924138
1465.24	0.862069
1471.52	0.882759
1477.79	0.82069
1484.06	0.827586
1490.32	0.793104
1496.58	0.710345
1502.83	0.765517
1509.08	0.675862
1515.32	0.696552
1521.56	0.77931
1527.8	0.724138
1534.03	0.724138
1540.25	0.710345
1546.47	0.668966
1552.69	0.724138
1558.9	0.62069
1565.1	0.717241
1571.3	0.682759
1577.5	0.62069
1583.69	0.703448
1589.88	0.627586
1596.06	0.648276
1602.24	0.641379
1608.41	0.641379
1614.58	0.675862
1620.74	0.586207
1626.9	0.586207
1633.06	0.648276
1639.21	0.682759
1645.35	0.593104
1651.49	0.613793
1657.63	0.662069
1663.76	0.696552
1669.89	0.675862
1676.01	0.668966
1682.13	0.648276
1688.24	0.62069
1694.35	0.6
1700.45	0.593103
1706.55	0.662069
1712.64	0.641379
1718.73	0.606897
1724.82	0.662069
1730.9	0.468966
1736.97	0.558621
1743.04	0.641379
1749.11	0.558621
1755.17	0.593103
1761.23	0.627586
1767.28	0.537931
1773.33	0.572414
1779.38	0.572414
1785.42	0.593104
1791.45	0.565517
1797.48	0.586207
1803.51	0.517241
1809.53	0.496552
1815.54	0.544828
1821.56	0.544828
1827.56	0.572414
1833.57	0.537931
1839.56	0.517241
1845.56	0.572414
1851.55	0.558621
1856.04	0.593103