File: Tutorial_Raman_data/References/Fe2O3_Cr2O3.csv
48.770;970.900
56.611;1028.400
64.445;1086.600
72.273;1142.300
80.095;1166.400
87.909;1167.600
95.718;1165.900
103.519;1184.000
111.315;1191.200
119.103;1167.500
126.885;1169.400
134.661;1170.000
142.430;1153.600
150.193;1165.700
157.950;1156.300
165.699;1164.700
173.443;1161.700
181.180;1167.700
188.910;1156.000
196.635;1153.700
204.352;1145.000
212.064;1149.400
219.769;1143.100
227.467;1150.500
235.159;1138.900
242.845;1139.200
250.524;1143.500
258.197;1136.300
265.864;1140.100
273.525;1154.000
281.179;1144.500
288.826;1149.800
296.468;1144.200
304.103;1148.900
311.731;1142.800
319.354;1147.500
326.970;1153.300
334.580;1150.400
342.184;1155.600
349.781;1154.300
357.372;1152.300
364.957;1151.700
372.536;1154.800
380.108;1163.400
387.674;1159.200
395.234;1162.800
402.788;1163.800
410.335;1149.700
417.877;1156.400
425.412;1152.700
432.941;1163.500
440.464;1148.000
447.980;1159.200
455.491;1161.000
462.995;1152.300
470.493;1163.700
477.985;1175.200
485.471;1179.500
492.951;1200.000
500.425;1229.400
507.892;1247.700
515.354;1252.500
522.809;1278.300
530.259;1289.300
537.702;1284.300
545.139;1259.800
552.570;1246.600
559.995;1232.200
567.414;1224.400
574.827;1206.800
582.234;1198.700
589.635;1191.600
597.030;1203.600
604.419;1217.000
611.802;1239.800
619.179;1270.900
626.550;1301.900
633.915;1330.400
641.274;1345.700
648.627;1386.900
655.974;1435.500
663.315;1467.600
670.650;1450.300
677.979;1407.400
685.303;1358.200
692.620;1390.600
699.932;1408.200
707.237;1438.400
714.537;1460.000
721.831;1469.400
729.119;1384.600
736.401;1271.100
743.677;1199.900
750.947;1158.900
758.211;1147.500
765.470;1141.000
772.723;1121.300
779.970;1116.900
787.211;1112.400
794.446;1106.700
801.675;1094.000
808.899;1096.100
816.117;1095.700
823.329;1090.800
830.535;1090.000
837.736;1081.400
844.930;1088.900
852.119;1090.800
859.302;1091.400
866.480;1082.800
873.651;1080.400
880.817;1083.800
887.977;1085.800
895.132;1079.700
902.281;1081.500
909.424;1082.000
916.561;1076.100
923.693;1075.000
930.819;1076.800
937.939;1071.800
945.054;1073.900
952.163;1068.800
959.266;1073.600
966.363;1067.100
973.455;1067.500
980.542;1067.100
987.622;1071.000
994.697;1071.300
1001.742;1066.400
1008.708;1074.900
1015.668;1066.500
1022.623;1074.600
1029.572;1073.100
1036.516;1070.700
1043.455;1078.200
1050.388;1079.500
1057.315;1079.400
1064.237;1080.700
1071.154;1076.400
1078.066;1080.500
1084.972;1073.300
1091.872;1077.600
1098.768;1078.300
1105.657;1082.200
1112.542;1078.500
1119.421;1080.400
1126.295;1082.500
1133.163;1073.100
1140.027;1072.800
1146.884;1085.300
1153.737;1074.700
1160.584;1083.200
1167.426;1076.200
1174.262;1073.300
1181.093;1075.400
1187.919;1083.600
1194.740;1083.900
1201.555;1080.600
1208.365;1085.600
1215.170;1085.600
1221.970;1078.300
1228.764;1081.600
1235.553;1086.600
1242.337;1075.500
1249.115;1082.800
1255.888;1083.200
1262.656;1082.600
1269.419;1078.200
1276.177;1077.600
1282.929;1083.600
1289.676;1080.100
1296.418;1084.300
1303.155;1081.600
1309.887;1080.600
1316.613;1083.200
1323.334;1086.900
1330.051;1084.500
1336.761;1091.700
1343.467;1084.000
1350.168;1077.400
1356.863;1080.900
1363.554;1081.700
1370.239;1080.800
1376.919;1075.000
1383.594;1079.600
1390.264;1080.600
1396.928;1077.100
1403.588;1083.000
1410.242;1074.200
1416.892;1075.100
1423.536;1076.100
1430.175;1067.700
1436.810;1069.200
1443.439;1071.200
1450.063;1067.800
1456.682;1068.600
1463.296;1066.900
1469.904;1064.300
1476.508;1060.000
1483.107;1062.800
1489.701;1058.600
1496.290;1058.000
1502.873;1059.400
1509.452;1057.300
1516.026;1061.400
1522.594;1061.900
1529.158;1061.000
1535.717;1063.800
1542.271;1056.200
1548.819;1064.600
1555.363;1057.100
1561.902;1056.000
1568.436;1053.000
1574.965;1057.400
1581.489;1054.700
1588.008;1056.500
1594.522;1054.400
1601.031;1055.800
1607.535;1048.000
1614.034;1052.500
1620.529;1049.700
1627.018;1048.700
1633.503;1048.200
1639.983;1049.100
1646.457;1046.700
1652.927;1046.000
1659.392;1042.300
1665.852;1044.000
1672.308;1043.300
1678.758;1047.800
1685.203;1040.200
1691.644;1042.200
1698.080;1040.200
1704.511;1041.300
1710.937;1037.100
1717.358;1035.700
1723.775;1040.800
1730.187;1037.000
1736.593;1040.500
1742.995;1036.300
1749.393;1038.200
1755.785;1037.800
1762.173;1035.400
1768.555;1031.100
1774.934;1038.400
1781.307;1037.000
1787.675;1038.200
1794.039;1038.300
1800.398;1034.000
1806.752;1035.600
1813.102;1031.200
1819.446;1036.900
1825.786;1032.200
1832.122;1034.200
1838.452;1039.100
1844.778;1039.500
1849.519;1027.900